mz,intensity
348.65973,1118.4
366.49738,957.4
378.61044,1035.0
384.96628,1023.3
399.83597,1021.2
410.63171,893.0
446.43933,1183.9
457.3089,984.9
515.08759,1182.7
565.32623,977.4
582.4903,1089.2
627.27417,987.3
645.15381,1242.7
727.96521,1004.0
746.97577,1023.7
776.48956,1029.8
862.396,926.4
947.27393,1181.2
948.91821,1174.5
1051.68115,1144.0
1055.85046,1269.2
1210.28357,5545.3
1222.19861,9204373.0
