mz,intensity
335.21323,903.8
335.29456,1106.7
341.9324,1212.1
347.53738,1212.6
394.16727,1117.4
431.88297,1110.8
509.33243,1020.4
518.42371,1028.9
538.24432,1079.4
637.50049,1109.4
657.52045,992.8
673.49829,970.6
763.25793,1073.7
782.44849,1064.7
790.74408,1034.3
834.08075,1077.1
893.15265,1527.8
1139.16638,1657.3
1210.28296,5769.0
1222.19824,8282169.5
1222.70654,3399.2
1223.16296,1618.4
