mz,intensity
395.99268,902.1
406.04517,979.2
448.70563,994.2
475.07541,898.0
488.36362,1081.1
702.02832,806.2
725.58923,1122.0
750.54999,838.3
793.60339,945.3
825.36792,1139.1
879.47687,868.1
955.76508,973.4
976.53094,1064.5
1083.724,1102.8
1087.18042,1198.7
1129.1167,1173.4
1204.1853,1494.4
1210.28369,4015.8
1222.19836,6966827.5
1222.70447,1637.9
