mz,intensity
332.3736,844.1
343.87625,851.2
367.06488,825.3
402.01361,710.8
414.30804,730.3
431.4281,818.6
435.89798,819.2
442.73245,752.8
547.83875,846.9
556.70111,841.7
584.1131,777.0
597.45697,762.7
608.17542,791.3
684.08026,910.5
690.0553,755.8
726.66174,1012.7
785.22205,930.3
893.15405,1335.9
920.94403,805.4
1048.15491,1182.7
1098.8584,954.4
1210.2843,3931.4
1222.19934,7870244.0
