mz,intensity
348.52399,796.4
369.33731,847.0
389.56146,755.6
395.47668,716.0
415.14929,703.5
422.59592,741.5
425.56689,704.9
455.96472,705.6
564.86633,832.6
577.7019,887.7
586.30396,809.2
607.17792,838.8
644.32056,787.4
668.48126,789.6
857.63,731.6
896.43622,817.3
932.66766,835.5
945.8457,829.2
1063.62903,1078.8
1176.92871,1236.5
1210.28357,4601.1
1222.19946,7894144.5
1222.70325,1995.9
