mz,intensity
342.4527,672.8
355.1637,776.0
361.03598,655.0
396.05298,758.9
397.76071,690.1
419.05179,696.7
436.1214,752.8
444.39481,655.1
471.23273,606.3
473.51355,664.3
489.4501,707.4
501.25836,689.3
531.34619,666.0
571.70593,610.7
578.32037,726.0
578.5282,772.0
608.74414,653.4
619.59863,756.6
625.46497,608.7
708.87561,650.6
713.38525,670.2
980.19385,778.1
1204.18604,1430.6
1210.28394,5423.8
1222.19958,8785542.0
1222.70593,4660.1
