mz,intensity
336.97733,585.6
337.37503,673.5
344.80237,574.6
378.35202,608.4
408.14111,666.3
451.16824,610.8
457.85934,597.7
540.96008,663.4
587.67688,691.9
592.7417,658.4
637.64899,675.0
670.79303,673.4
722.71375,694.9
729.38281,697.1
872.8985,749.7
893.15216,1179.9
917.78601,833.6
924.34393,750.2
946.58362,712.7
1063.2384,901.9
1074.15405,942.6
1099.75989,1072.2
1210.2843,5979.3
1210.53784,1227.2
1214.20923,1228.7
1222.19983,9639137.0
1222.70374,3198.9
1222.86523,1220.2
