mz,intensity
341.07816,793.1
347.34088,769.8
363.5993,857.5
364.0712,920.3
370.50262,870.6
386.20193,883.0
395.78848,761.8
414.66382,858.0
463.53531,843.2
544.58368,819.9
564.93781,1057.9
594.79071,934.1
628.50543,937.6
655.6839,806.4
696.59766,941.4
758.05811,978.3
765.93011,1124.2
848.69598,953.2
871.33563,1060.4
893.15216,1367.4
906.91107,941.5
980.01056,1191.9
1081.52515,1157.4
1210.28333,4043.4
1222.19836,7471951.0
1222.7052,2608.1
