mz,intensity
341.69821,827.0
350.61975,772.8
366.48401,780.3
371.65427,762.0
375.87106,759.0
396.60477,967.0
422.78528,860.9
457.06607,808.8
478.61096,926.8
489.13382,733.4
561.68518,895.3
571.35461,1015.2
613.19659,853.9
696.07501,937.0
762.81738,874.8
870.83649,889.9
892.92914,802.7
896.76837,934.0
900.25421,806.8
1086.50574,1044.9
1091.17346,1141.1
1122.20178,1284.6
1210.28076,4666.6
1222.19617,6649993.0
1222.70325,4830.6
