mz,intensity
333.25757,1039.5
339.8606,886.5
371.8999,1050.6
408.33875,951.8
427.26108,1105.5
428.8689,943.4
433.74185,980.6
435.58084,909.7
479.0968,808.4
493.48819,855.4
532.76935,916.8
548.9278,1024.5
572.93103,970.8
586.07147,1014.8
620.5033,986.6
658.2287,1003.8
720.25854,830.0
724.86475,911.7
733.85144,943.5
757.22333,958.0
826.71747,937.4
943.09082,988.4
1033.96057,1195.8
1073.80933,1131.4
1168.4718,1202.0
1210.27893,3461.2
1222.19592,5670874.5
1222.7019,2613.7
