mz,intensity
340.72665,479.4
426.74686,420.7
431.46988,478.1
485.80316,492.0
489.4288,449.6
495.63998,458.7
498.4736,495.6
512.25653,548.0
524.50354,517.5
562.71826,571.4
575.45685,497.5
591.68207,660.7
656.17041,446.5
696.57562,565.0
773.29852,600.0
784.57495,577.6
833.50897,499.0
882.50385,562.5
1077.84912,716.0
1199.40002,1394.7
1210.28394,5507.2
1222.19995,8496401.0
1222.70325,1754.9
