mz,intensity
337.18637,847.7
342.73721,900.4
392.82632,900.4
404.52774,873.5
411.32007,980.9
423.58301,959.6
495.52008,869.2
544.07947,959.3
582.69043,998.2
591.08942,896.3
609.73285,960.9
628.61383,920.2
644.55634,982.1
797.81702,1049.8
854.00085,886.0
870.44403,828.3
901.30878,1116.7
1210.27942,3551.8
1222.19604,6724313.5
1222.70313,3948.4
