mz,intensity
354.78928,920.4
356.4722,901.9
358.0947,997.4
365.93179,895.9
412.31677,835.2
442.25735,913.0
444.98773,839.6
446.1452,845.4
456.0173,905.5
481.26471,874.4
508.9715,1001.5
571.70837,1015.0
590.44507,969.8
613.30463,906.6
649.88373,934.4
652.41272,853.6
792.36267,1113.7
800.76819,969.2
886.17511,928.0
905.98486,957.2
923.66913,837.1
937.40204,940.3
1029.99072,1084.7
1210.27979,2446.2
1222.1958,4930686.0
1222.70142,3531.9
