mz,intensity
348.81158,925.9
359.48172,1102.4
374.2518,869.2
382.67767,859.8
411.02548,952.8
414.80075,1008.5
483.09338,958.9
485.69193,923.6
500.47141,1025.1
511.57245,979.0
514.66101,1016.2
551.18274,845.7
579.9967,1012.7
588.48822,1003.2
750.03949,1193.5
750.4845,1124.7
753.84601,1102.5
786.70648,945.5
868.96234,1020.9
904.86255,959.9
931.22821,958.6
1021.24426,1142.5
1210.28088,3878.5
1222.19568,5763649.5
1222.70313,3794.4
